Sample description: water
Sample: water  c= 0 mg/ml  Code: water
Parent(s): cell-water.dat
 1.176470e-002  7.760375e-002  1.015939e-004
 1.568630e-002  4.252207e-002  6.070104e-005
 1.960780e-002  3.303259e-002  5.024907e-005
 2.352940e-002  2.931312e-002  4.476908e-005
 2.745100e-002  2.762368e-002  4.069153e-005
 3.137250e-002  2.685478e-002  3.554077e-005
 3.529410e-002  2.616916e-002  3.508216e-005
 3.921570e-002  2.588724e-002  3.537159e-005
 4.313730e-002  2.565024e-002  3.347825e-005
 4.705880e-002  2.550210e-002  4.189936e-005
 5.098040e-002  2.526382e-002  3.213087e-005
 5.490200e-002  2.515721e-002  3.108359e-005
 5.882350e-002  2.506697e-002  3.124257e-005
 6.274510e-002  2.501216e-002  2.934952e-005
 6.666670e-002  2.504977e-002  2.983160e-005
 7.058820e-002  2.499260e-002  2.811372e-005
 7.450980e-002  2.499006e-002  2.856367e-005
 7.843140e-002  2.493945e-002  2.767473e-005
 8.235290e-002  2.479932e-002  3.037036e-005
 8.627450e-002  2.488318e-002  2.781164e-005
 9.019610e-002  2.499128e-002  3.284939e-005
 9.411760e-002  2.482965e-002  2.837754e-005
 9.803920e-002  2.483483e-002  2.606659e-005
 1.019610e-001  2.479606e-002  2.643856e-005
 1.058820e-001  2.483016e-002  2.499356e-005
 1.098040e-001  2.482982e-002  2.547845e-005
 1.137250e-001  2.479591e-002  2.407510e-005
 1.176470e-001  2.472905e-002  2.448842e-005
 1.215690e-001  2.474256e-002  2.309192e-005
 1.254900e-001  2.473351e-002  2.368964e-005
 1.294120e-001  2.472519e-002  2.250035e-005
 1.333330e-001  2.478286e-002  2.219263e-005
 1.372550e-001  2.481804e-002  2.759192e-005
 1.411760e-001  2.474565e-002  2.358019e-005
 1.450980e-001  2.475144e-002  2.271102e-005
 1.490200e-001  2.475141e-002  2.273690e-005
 1.529410e-001  2.478746e-002  2.155316e-005
 1.568630e-001  2.480694e-002  2.201036e-005
 1.607840e-001  2.478930e-002  2.089139e-005
 1.647060e-001  2.474728e-002  2.133791e-005
 1.686270e-001  2.473450e-002  2.033142e-005
 1.725490e-001  2.468346e-002  2.092733e-005
 1.764710e-001  2.469645e-002  1.997031e-005
 1.803920e-001  2.469741e-002  2.316141e-005
 1.843140e-001  2.468172e-002  2.060105e-005
 1.882350e-001  2.463744e-002  1.965345e-005
 1.921570e-001  2.467003e-002  2.011999e-005
 1.960780e-001  2.464855e-002  1.971124e-005
 2.000000e-001  2.464364e-002  2.128213e-005
 2.039220e-001  2.472213e-002  1.982777e-005
 2.078430e-001  2.472034e-002  2.016254e-005
 2.117650e-001  2.466837e-002  1.914386e-005
 2.156860e-001  2.457587e-002  1.956143e-005
 2.196080e-001  2.462868e-002  1.869093e-005
 2.235290e-001  2.458056e-002  1.854466e-005
 2.274510e-001  2.461205e-002  2.270452e-005
 2.313730e-001  2.462649e-002  1.853743e-005
 2.352940e-001  2.464190e-002  1.905313e-005
 2.392160e-001  2.458182e-002  1.808548e-005
 2.431370e-001  2.456288e-002  1.788525e-005
 2.470590e-001  2.455960e-002  1.847113e-005
 2.509800e-001  2.451338e-002  1.677032e-005
 2.549020e-001  2.445099e-002  1.849618e-005
 2.588240e-001  2.442131e-002  1.938200e-005
 2.627450e-001  2.446016e-002  1.803533e-005
 2.666670e-001  2.443174e-002  1.834603e-005
 2.705880e-001  2.440264e-002  1.748239e-005
 2.745100e-001  2.443893e-002  2.032944e-005
 2.784310e-001  2.440628e-002  1.792409e-005
 2.823530e-001  2.441299e-002  1.715568e-005
 2.862750e-001  2.431710e-002  1.764625e-005
 2.901960e-001  2.439571e-002  1.694025e-005
 2.941180e-001  2.440050e-002  1.747852e-005
 2.980390e-001  2.439164e-002  1.671514e-005
 3.019610e-001  2.441414e-002  1.661525e-005
 3.058820e-001  2.449533e-002  1.723460e-005
 3.098040e-001  2.452428e-002  1.661230e-005
 3.137250e-001  2.447386e-002  1.809106e-005
 3.176470e-001  2.455026e-002  2.063152e-005
 3.215690e-001  2.461167e-002  1.705528e-005
 3.254900e-001  2.466317e-002  1.742606e-005
 3.294120e-001  2.469600e-002  1.664842e-005
 3.333330e-001  2.473041e-002  1.719169e-005
 3.372550e-001  2.475631e-002  1.643805e-005
 3.411760e-001  2.478763e-002  1.689682e-005
 3.450980e-001  2.481832e-002  1.624945e-005
 3.490200e-001  2.488829e-002  1.681773e-005
 3.529410e-001  2.495732e-002  1.620266e-005
 3.568630e-001  2.500621e-002  1.681674e-005
 3.607840e-001  2.512931e-002  1.621914e-005
 3.647060e-001  2.518050e-002  1.896426e-005
 3.686270e-001  2.521425e-002  1.692444e-005
 3.725490e-001  2.525609e-002  1.721270e-005
 3.764710e-001  2.529425e-002  1.803793e-005
 3.803920e-001  2.539519e-002  1.691131e-005
 3.843140e-001  2.550155e-002  1.735143e-005
 3.882350e-001  2.556550e-002  1.665247e-005
 3.921570e-001  2.562478e-002  1.672763e-005
 3.960780e-001  2.570607e-002  1.741850e-005
 4.000000e-001  2.576858e-002  1.682768e-005
 4.039220e-001  2.582627e-002  1.751810e-005
 4.078430e-001  2.592512e-002  1.972997e-005
 4.117650e-001  2.600792e-002  1.684070e-005
 4.156860e-001  2.609426e-002  1.747422e-005
 4.196080e-001  2.619677e-002  1.694242e-005
 4.235290e-001  2.630523e-002  1.764642e-005
 4.274510e-001  2.636856e-002  1.720394e-005
 4.313730e-001  2.640273e-002  1.914162e-005
 4.352940e-001  2.650969e-002  1.847046e-005
 4.392160e-001  2.657920e-002  1.864526e-005
 4.431370e-001  2.661975e-002  1.780461e-005
 4.470590e-001  2.666136e-002  1.833747e-005
 4.509800e-001  2.668316e-002  1.762726e-005
 4.549020e-001  2.669369e-002  2.060134e-005
 4.588240e-001  2.669045e-002  1.825709e-005
 4.627450e-001  2.676805e-002  1.761725e-005
 4.666670e-001  2.687834e-002  1.828917e-005
 4.705880e-001  2.698182e-002  1.766383e-005
 4.745100e-001  2.707343e-002  1.839377e-005
 4.784310e-001  2.721079e-002  1.771855e-005
 4.823530e-001  2.729494e-002  1.837525e-005
 4.862750e-001  2.741863e-002  1.804533e-005
 4.901960e-001  2.757109e-002  1.941465e-005
 4.941180e-001  2.774925e-002  1.987674e-005
 4.980390e-001  2.798313e-002  2.190180e-005
range-from: 1
range-to: 2630
Bragg Angle [mrad]: 10.9539
Buffer: water
Code: water
Concentration [mg/ml]: 0.00
Contrast [10^10cm^-2]: 2.953
Description: water
Detector Distance [m]: 3.0
Detector Name: pilatus6m
Diode 1: .0000
Diode 2: .0000
Exposure Delay [s]: 0.000
Exposure period [s]: 0.100
Exposure time [s]: 0.095
PETRA Current: 100.7339
Partial Specific Volume [cm^3/g]: 0.732
QBPM 1: .0000
Run Number: 51.5000
SC Current Temperature: 10.1500
SC Target Temperature: 10.0
SEU Current Temperature: 8.2125
SEU Horizontal Position: 1.800
SEU Target Temperature: 8.0
SEU Vertical Position: 3.240
Transmitted Beam (mean): .7445
Wavelength [nm]: 0.124402
angular-axis-file: etc/radial-averaging/saxs-2/saxis_saxs2_20181018.dat
angular-unit: nanometer
beam-center-x: 1151.3000
beam-center-y: 2407.9000
beamstop-mask-file: etc/radial-averaging/saxs-2/mask_saxs2_20181018.msk
channel-first: 7
channel-last: 2636
databsolute-cell: ../BatchMode/monitoring/data/cap_0019_00001.dat
databsolute-factor: 4.81916E-05
databsolute-temperature: 2.01000E+01
databsolute-water: ../BatchMode/monitoring/data/h2o_0019_00001.dat
detector-response-file: none
flatfield-file: none
unit-time: 100.0000
working-directory: /dataInt/p12/p3l-vestergaard/2018-11-24/BatchMode002
Timestamp (begin): 2018-11-24 19:35:38.114
Timestamp (end): 2018-11-24 19:55:18.683
parent: cell-water.dat
creator: datregrid
creator-version: 12106M (r12106M)
